# Peak	Frequency [Hz]   	Amplitude [a,u,] 	Width [Hz]       	Phase [degrees]  
1	5719,715	59,0441	17,634	-46,7
2	6853,203	41,929	18,732	-1,7
3	7989,781	31,0203	19,371	29,9
4	9124,208	22,639	20,437	57,9
5	10259,772	14,1618	22,807	63,8
6	11393,832	13,2206	23,386	90,7
7	12524,178	9,5492	27,648	98,3
8	13641,917	7,4138	33,978	133,8